# mid-IR telescope emission 5-30um
# assumes grey emissivity of 6%
# 
# original data from Scott Fisher
#
# sampled (1 point in 10) by Phil Puxley
# 3 Sept 2003
#
#  Wavelength        Flux density
#  (nm)          (ph/sec/nm/arcsec2/m2)

  5000   43260
  5010   43812
  5020   44370
  5030   44928
  5040   45492
  5050   46062
  5060   46632
  5070   47208
  5080   47790
  5090   48372
  5100   48960
  5110   49554
  5120   50148
  5130   50748
  5140   51354
  5150   51960
  5160   52572
  5170   53190
  5180   53808
  5190   54432
  5200   55062
  5210   55692
  5220   56328
  5230   56970
  5240   57612
  5250   58260
  5260   58914
  5270   59568
  5280   60240
  5290   60900
  5300   61560
  5310   62220
  5320   62880
  5330   63600
  5340   64260
  5350   64980
  5360   65640
  5370   66360
  5380   67020
  5390   67740
  5400   68460
  5410   69180
  5420   69900
  5430   70560
  5440   71340
  5450   72060
  5460   72780
  5470   73500
  5480   74220
  5490   74940
  5500   75720
  5510   76440
  5520   77220
  5530   77940
  5540   78720
  5550   79500
  5560   80220
  5570   81000
  5580   81780
  5590   82560
  5600   83340
  5610   84120
  5620   84900
  5630   85680
  5640   86460
  5650   87300
  5660   88080
  5670   88860
  5680   89700
  5690   90480
  5700   91320
  5710   92100
  5720   92940
  5730   93780
  5740   94560
  5750   95400
  5760   96240
  5770   97080
  5780   97920
  5790   98760
  5800   99600
  5810  100440
  5820  101280
  5830  102180
  5840  103020
  5850  103860
  5860  104760
  5870  105600
  5880  106440
  5890  107340
  5900  108240
  5910  109080
  5920  109980
  5930  110880
  5940  111720
  5950  112620
  5960  113520
  5970  114420
  5980  115320
  5990  116220
  6000  117120
  6010  118020
  6020  118920
  6030  119820
  6040  120720
  6050  121680
  6060  122580
  6070  123480
  6080  124440
  6090  125340
  6100  126240
  6110  127200
  6120  128100
  6130  129060
  6140  130020
  6150  130920
  6160  131880
  6170  132840
  6180  133740
  6190  134700
  6200  135660
  6210  136620
  6220  137580
  6230  138540
  6240  139500
  6250  140460
  6260  141420
  6270  142380
  6280  143340
  6290  144300
  6300  145260
  6310  146280
  6320  147240
  6330  148200
  6340  149220
  6350  150180
  6360  151140
  6370  152160
  6380  153120
  6390  154140
  6400  155100
  6410  156120
  6420  157080
  6430  158100
  6440  159060
  6450  160080
  6460  161100
  6470  162060
  6480  163080
  6490  164100
  6500  165120
  6510  166080
  6520  167100
  6530  168120
  6540  169140
  6550  170160
  6560  171180
  6570  172200
  6580  173220
  6590  174240
  6600  175260
  6610  176280
  6620  177300
  6630  178320
  6640  179340
  6650  180360
  6660  181380
  6670  182400
  6680  183420
  6690  184440
  6700  185520
  6710  186540
  6720  187560
  6730  188580
  6740  189660
  6750  190680
  6760  191700
  6770  192720
  6780  193800
  6790  194820
  6800  195840
  6810  196920
  6820  197940
  6830  199020
  6840  200040
  6850  201060
  6860  202140
  6870  203160
  6880  204240
  6890  205260
  6900  206340
  6910  207360
  6920  208380
  6930  209460
  6940  210480
  6950  211560
  6960  212580
  6970  213660
  6980  214740
  6990  215760
  7000  216840
  7010  217860
  7020  218940
  7030  219960
  7040  221040
  7050  222060
  7060  223140
  7070  224160
  7080  225240
  7090  226320
  7100  227340
  7110  228420
  7120  229440
  7130  230520
  7140  231600
  7150  232620
  7160  233700
  7170  234720
  7180  235800
  7190  236820
  7200  237900
  7210  238980
  7220  240000
  7230  241080
  7240  242100
  7250  243180
  7260  244200
  7270  245280
  7280  246360
  7290  247380
  7300  248460
  7310  249480
  7320  250560
  7330  251580
  7340  252660
  7350  253680
  7360  254760
  7370  255840
  7380  256860
  7390  257940
  7400  258960
  7410  260040
  7420  261060
  7430  262080
  7440  263160
  7450  264180
  7460  265260
  7470  266280
  7480  267360
  7490  268380
  7500  269460
  7510  270480
  7520  271500
  7530  272580
  7540  273600
  7550  274620
  7560  275700
  7570  276720
  7580  277740
  7590  278820
  7600  279840
  7610  280860
  7620  281940
  7630  282960
  7640  283980
  7650  285000
  7660  286080
  7670  287100
  7680  288120
  7690  289140
  7700  290160
  7710  291180
  7720  292200
  7730  293280
  7740  294300
  7750  295320
  7760  296340
  7770  297360
  7780  298380
  7790  299400
  7800  300420
  7810  301440
  7820  302460
  7830  303480
  7840  304500
  7850  305460
  7860  306480
  7870  307500
  7880  308520
  7890  309540
  7900  310560
  7910  311520
  7920  312540
  7930  313560
  7940  314520
  7950  315540
  7960  316560
  7970  317520
  7980  318540
  7990  319560
  8000  320520
  8010  321540
  8020  322500
  8030  323520
  8040  324480
  8050  325500
  8060  326460
  8070  327420
  8080  328440
  8090  329400
  8100  330420
  8110  331380
  8120  332340
  8130  333300
  8140  334320
  8150  335280
  8160  336240
  8170  337200
  8180  338160
  8190  339120
  8200  340080
  8210  341040
  8220  342000
  8230  342960
  8240  343920
  8250  344880
  8260  345840
  8270  346800
  8280  347760
  8290  348720
  8300  349680
  8310  350580
  8320  351540
  8330  352500
  8340  353400
  8350  354360
  8360  355320
  8370  356220
  8380  357180
  8390  358080
  8400  359040
  8410  359940
  8420  360900
  8430  361800
  8440  362760
  8450  363660
  8460  364560
  8470  365520
  8480  366420
  8490  367320
  8500  368220
  8510  369120
  8520  370080
  8530  370980
  8540  371880
  8550  372780
  8560  373680
  8570  374580
  8580  375480
  8590  376380
  8600  377220
  8610  378120
  8620  379020
  8630  379920
  8640  380820
  8650  381660
  8660  382560
  8670  383460
  8680  384300
  8690  385200
  8700  386040
  8710  386940
  8720  387780
  8730  388680
  8740  389520
  8750  390420
  8760  391260
  8770  392100
  8780  393000
  8790  393840
  8800  394680
  8810  395520
  8820  396360
  8830  397200
  8840  398040
  8850  398880
  8860  399720
  8870  400560
  8880  401400
  8890  402240
  8900  403080
  8910  403920
  8920  404760
  8930  405540
  8940  406380
  8950  407220
  8960  408000
  8970  408840
  8980  409680
  8990  410460
  9000  411300
  9010  412080
  9020  412860
  9030  413700
  9040  414480
  9050  415260
  9060  416100
  9070  416880
  9080  417660
  9090  418440
  9100  419220
  9110  420000
  9120  420840
  9130  421620
  9140  422340
  9150  423120
  9160  423900
  9170  424680
  9180  425460
  9190  426240
  9200  427020
  9210  427740
  9220  428520
  9230  429300
  9240  430020
  9250  430800
  9260  431520
  9270  432300
  9280  433020
  9290  433800
  9300  434520
  9310  435240
  9320  436020
  9330  436740
  9340  437460
  9350  438180
  9360  438900
  9370  439620
  9380  440400
  9390  441120
  9400  441840
  9410  442560
  9420  443220
  9430  443940
  9440  444660
  9450  445380
  9460  446100
  9470  446760
  9480  447480
  9490  448200
  9500  448860
  9510  449580
  9520  450240
  9530  450960
  9540  451620
  9550  452340
  9560  453000
  9570  453660
  9580  454380
  9590  455040
  9600  455700
  9610  456360
  9620  457080
  9630  457740
  9640  458400
  9650  459060
  9660  459720
  9670  460380
  9680  461040
  9690  461640
  9700  462300
  9710  462960
  9720  463620
  9730  464280
  9740  464880
  9750  465540
  9760  466200
  9770  466800
  9780  467460
  9790  468060
  9800  468720
  9810  469320
  9820  469920
  9830  470580
  9840  471180
  9850  471780
  9860  472380
  9870  473040
  9880  473640
  9890  474240
  9900  474840
  9910  475440
  9920  476040
  9930  476640
  9940  477240
  9950  477840
  9960  478380
  9970  478980
  9980  479580
  9990  480180
 10000  480720
 10010  481320
 10020  481920
 10030  482460
 10040  483060
 10050  483600
 10060  484200
 10070  484740
 10080  485280
 10090  485880
 10100  486420
 10110  486960
 10120  487500
 10130  488100
 10140  488640
 10150  489180
 10160  489720
 10170  490260
 10180  490800
 10190  491340
 10200  491880
 10210  492420
 10220  492900
 10230  493440
 10240  493980
 10250  494520
 10260  495000
 10270  495540
 10280  496080
 10290  496560
 10300  497100
 10310  497580
 10320  498120
 10330  498600
 10340  499080
 10350  499620
 10360  500100
 10370  500580
 10380  501060
 10390  501600
 10400  502080
 10410  502560
 10420  503040
 10430  503520
 10440  504000
 10450  504480
 10460  504960
 10470  505440
 10480  505920
 10490  506400
 10500  506820
 10510  507300
 10520  507780
 10530  508200
 10540  508680
 10550  509160
 10560  509580
 10570  510060
 10580  510480
 10590  510960
 10600  511380
 10610  511800
 10620  512280
 10630  512700
 10640  513120
 10650  513600
 10660  514020
 10670  514440
 10680  514860
 10690  515280
 10700  515700
 10710  516120
 10720  516540
 10730  516960
 10740  517380
 10750  517800
 10760  518220
 10770  518640
 10780  519000
 10790  519420
 10800  519840
 10810  520200
 10820  520620
 10830  521040
 10840  521400
 10850  521820
 10860  522180
 10870  522600
 10880  522960
 10890  523320
 10900  523740
 10910  524100
 10920  524460
 10930  524880
 10940  525240
 10950  525600
 10960  525960
 10970  526320
 10980  526680
 10990  527040
 11000  527400
 11010  527760
 11020  528120
 11030  528480
 11040  528840
 11050  529200
 11060  529500
 11070  529860
 11080  530220
 11090  530580
 11100  530880
 11110  531240
 11120  531540
 11130  531900
 11140  532260
 11150  532560
 11160  532860
 11170  533220
 11180  533520
 11190  533880
 11200  534180
 11210  534480
 11220  534780
 11230  535140
 11240  535440
 11250  535740
 11260  536040
 11270  536340
 11280  536640
 11290  536940
 11300  537240
 11310  537540
 11320  537840
 11330  538140
 11340  538440
 11350  538740
 11360  539040
 11370  539280
 11380  539580
 11390  539880
 11400  540120
 11410  540420
 11420  540720
 11430  540960
 11440  541260
 11450  541500
 11460  541800
 11470  542040
 11480  542340
 11490  542580
 11500  542820
 11510  543120
 11520  543360
 11530  543600
 11540  543840
 11550  544140
 11560  544380
 11570  544620
 11580  544860
 11590  545100
 11600  545340
 11610  545580
 11620  545820
 11630  546060
 11640  546300
 11650  546540
 11660  546780
 11670  546960
 11680  547200
 11690  547440
 11700  547680
 11710  547920
 11720  548100
 11730  548340
 11740  548520
 11750  548760
 11760  549000
 11770  549180
 11780  549420
 11790  549600
 11800  549840
 11810  550020
 11820  550200
 11830  550440
 11840  550620
 11850  550800
 11860  551040
 11870  551220
 11880  551400
 11890  551580
 11900  551760
 11910  551940
 11920  552180
 11930  552360
 11940  552540
 11950  552720
 11960  552900
 11970  553080
 11980  553260
 11990  553380
 12000  553560
 12010  553740
 12020  553920
 12030  554100
 12040  554220
 12050  554400
 12060  554580
 12070  554760
 12080  554880
 12090  555060
 12100  555180
 12110  555360
 12120  555540
 12130  555660
 12140  555840
 12150  555960
 12160  556080
 12170  556260
 12180  556380
 12190  556560
 12200  556680
 12210  556800
 12220  556920
 12230  557100
 12240  557220
 12250  557340
 12260  557460
 12270  557580
 12280  557760
 12290  557880
 12300  558000
 12310  558120
 12320  558240
 12330  558360
 12340  558480
 12350  558600
 12360  558720
 12370  558780
 12380  558900
 12390  559020
 12400  559140
 12410  559260
 12420  559320
 12430  559440
 12440  559560
 12450  559680
 12460  559740
 12470  559860
 12480  559980
 12490  560040
 12500  560160
 12510  560220
 12520  560340
 12530  560400
 12540  560520
 12550  560580
 12560  560700
 12570  560760
 12580  560820
 12590  560940
 12600  561000
 12610  561060
 12620  561120
 12630  561240
 12640  561300
 12650  561360
 12660  561420
 12670  561540
 12680  561600
 12690  561660
 12700  561720
 12710  561780
 12720  561840
 12730  561900
 12740  561960
 12750  562020
 12760  562080
 12770  562140
 12780  562200
 12790  562260
 12800  562260
 12810  562320
 12820  562380
 12830  562440
 12840  562500
 12850  562500
 12860  562560
 12870  562620
 12880  562620
 12890  562680
 12900  562740
 12910  562740
 12920  562800
 12930  562860
 12940  562860
 12950  562920
 12960  562920
 12970  562980
 12980  562980
 12990  562980
 13000  563040
 13010  563040
 13020  563100
 13030  563100
 13040  563100
 13050  563160
 13060  563160
 13070  563160
 13080  563220
 13090  563220
 13100  563220
 13110  563220
 13120  563220
 13130  563220
 13140  563280
 13150  563280
 13160  563280
 13170  563280
 13180  563280
 13190  563280
 13200  563280
 13210  563280
 13220  563280
 13230  563280
 13240  563280
 13250  563280
 13260  563280
 13270  563220
 13280  563220
 13290  563220
 13300  563220
 13310  563220
 13320  563220
 13330  563160
 13340  563160
 13350  563160
 13360  563100
 13370  563100
 13380  563100
 13390  563040
 13400  563040
 13410  563040
 13420  562980
 13430  562980
 13440  562920
 13450  562920
 13460  562860
 13470  562860
 13480  562800
 13490  562800
 13500  562740
 13510  562740
 13520  562680
 13530  562680
 13540  562620
 13550  562560
 13560  562560
 13570  562500
 13580  562440
 13590  562440
 13600  562380
 13610  562320
 13620  562260
 13630  562200
 13640  562200
 13650  562140
 13660  562080
 13670  562020
 13680  561960
 13690  561900
 13700  561840
 13710  561840
 13720  561780
 13730  561720
 13740  561660
 13750  561600
 13760  561540
 13770  561480
 13780  561420
 13790  561360
 13800  561240
 13810  561180
 13820  561120
 13830  561060
 13840  561000
 13850  560940
 13860  560880
 13870  560820
 13880  560700
 13890  560640
 13900  560580
 13910  560520
 13920  560400
 13930  560340
 13940  560280
 13950  560160
 13960  560100
 13970  560040
 13980  559920
 13990  559860
 14000  559800
 14010  559680
 14020  559620
 14030  559500
 14040  559440
 14050  559380
 14060  559260
 14070  559200
 14080  559080
 14090  559020
 14100  558900
 14110  558780
 14120  558720
 14130  558600
 14140  558540
 14150  558420
 14160  558300
 14170  558240
 14180  558120
 14190  558060
 14200  557940
 14210  557820
 14220  557700
 14230  557640
 14240  557520
 14250  557400
 14260  557280
 14270  557220
 14280  557100
 14290  556980
 14300  556860
 14310  556740
 14320  556680
 14330  556560
 14340  556440
 14350  556320
 14360  556200
 14370  556080
 14380  555960
 14390  555840
 14400  555720
 14410  555600
 14420  555480
 14430  555360
 14440  555240
 14450  555120
 14460  555000
 14470  554880
 14480  554760
 14490  554640
 14500  554520
 14510  554400
 14520  554280
 14530  554160
 14540  554040
 14550  553920
 14560  553740
 14570  553620
 14580  553500
 14590  553380
 14600  553260
 14610  553080
 14620  552960
 14630  552840
 14640  552720
 14650  552540
 14660  552420
 14670  552300
 14680  552180
 14690  552000
 14700  551880
 14710  551760
 14720  551580
 14730  551460
 14740  551340
 14750  551160
 14760  551040
 14770  550860
 14780  550740
 14790  550620
 14800  550440
 14810  550320
 14820  550140
 14830  550020
 14840  549840
 14850  549720
 14860  549540
 14870  549420
 14880  549240
 14890  549120
 14900  548940
 14910  548820
 14920  548640
 14930  548460
 14940  548340
 14950  548160
 14960  548040
 14970  547860
 14980  547680
 14990  547560
 15000  547380
 15010  547200
 15020  547080
 15030  546900
 15040  546720
 15050  546600
 15060  546420
 15070  546240
 15080  546120
 15090  545940
 15100  545760
 15110  545580
 15120  545460
 15130  545280
 15140  545100
 15150  544920
 15160  544740
 15170  544620
 15180  544440
 15190  544260
 15200  544080
 15210  543900
 15220  543720
 15230  543540
 15240  543420
 15250  543240
 15260  543060
 15270  542880
 15280  542700
 15290  542520
 15300  542340
 15310  542160
 15320  541980
 15330  541800
 15340  541620
 15350  541440
 15360  541260
 15370  541080
 15380  540900
 15390  540720
 15400  540540
 15410  540360
 15420  540180
 15430  540000
 15440  539820
 15450  539640
 15460  539460
 15470  539280
 15480  539100
 15490  538920
 15500  538680
 15510  538500
 15520  538320
 15530  538140
 15540  537960
 15550  537780
 15560  537600
 15570  537360
 15580  537180
 15590  537000
 15600  536820
 15610  536640
 15620  536400
 15630  536220
 15640  536040
 15650  535860
 15660  535620
 15670  535440
 15680  535260
 15690  535080
 15700  534840
 15710  534660
 15720  534480
 15730  534300
 15740  534060
 15750  533880
 15760  533700
 15770  533460
 15780  533280
 15790  533100
 15800  532860
 15810  532680
 15820  532500
 15830  532260
 15840  532080
 15850  531840
 15860  531660
 15870  531480
 15880  531240
 15890  531060
 15900  530820
 15910  530640
 15920  530460
 15930  530220
 15940  530040
 15950  529800
 15960  529620
 15970  529380
 15980  529200
 15990  528960
 16000  528780
 16010  528540
 16020  528360
 16030  528120
 16040  527940
 16050  527700
 16060  527520
 16070  527280
 16080  527100
 16090  526860
 16100  526680
 16110  526440
 16120  526260
 16130  526020
 16140  525840
 16150  525600
 16160  525360
 16170  525180
 16180  524940
 16190  524760
 16200  524520
 16210  524280
 16220  524100
 16230  523860
 16240  523680
 16250  523440
 16260  523200
 16270  523020
 16280  522780
 16290  522540
 16300  522360
 16310  522120
 16320  521880
 16330  521700
 16340  521460
 16350  521220
 16360  521040
 16370  520800
 16380  520560
 16390  520320
 16400  520140
 16410  519900
 16420  519660
 16430  519480
 16440  519240
 16450  519000
 16460  518760
 16470  518580
 16480  518340
 16490  518100
 16500  517860
 16510  517620
 16520  517440
 16530  517200
 16540  516960
 16550  516720
 16560  516540
 16570  516300
 16580  516060
 16590  515820
 16600  515580
 16610  515340
 16620  515160
 16630  514920
 16640  514680
 16650  514440
 16660  514200
 16670  513960
 16680  513780
 16690  513540
 16700  513300
 16710  513060
 16720  512820
 16730  512580
 16740  512340
 16750  512100
 16760  511920
 16770  511680
 16780  511440
 16790  511200
 16800  510960
 16810  510720
 16820  510480
 16830  510240
 16840  510000
 16850  509760
 16860  509520
 16870  509340
 16880  509100
 16890  508860
 16900  508620
 16910  508380
 16920  508140
 16930  507900
 16940  507660
 16950  507420
 16960  507180
 16970  506940
 16980  506700
 16990  506460
 17000  506220
 17010  505980
 17020  505740
 17030  505500
 17040  505260
 17050  505020
 17060  504780
 17070  504540
 17080  504300
 17090  504060
 17100  503820
 17110  503580
 17120  503340
 17130  503100
 17140  502860
 17150  502620
 17160  502380
 17170  502140
 17180  501900
 17190  501660
 17200  501420
 17210  501120
 17220  500880
 17230  500640
 17240  500400
 17250  500160
 17260  499920
 17270  499680
 17280  499440
 17290  499200
 17300  498960
 17310  498720
 17320  498480
 17330  498240
 17340  497940
 17350  497700
 17360  497460
 17370  497220
 17380  496980
 17390  496740
 17400  496500
 17410  496260
 17420  496020
 17430  495720
 17440  495480
 17450  495240
 17460  495000
 17470  494760
 17480  494520
 17490  494280
 17500  494040
 17510  493740
 17520  493500
 17530  493260
 17540  493020
 17550  492780
 17560  492540
 17570  492240
 17580  492000
 17590  491760
 17600  491520
 17610  491280
 17620  491040
 17630  490740
 17640  490500
 17650  490260
 17660  490020
 17670  489780
 17680  489540
 17690  489240
 17700  489000
 17710  488760
 17720  488520
 17730  488280
 17740  487980
 17750  487740
 17760  487500
 17770  487260
 17780  487020
 17790  486720
 17800  486480
 17810  486240
 17820  486000
 17830  485760
 17840  485460
 17850  485220
 17860  484980
 17870  484740
 17880  484440
 17890  484200
 17900  483960
 17910  483720
 17920  483480
 17930  483180
 17940  482940
 17950  482700
 17960  482460
 17970  482160
 17980  481920
 17990  481680
 18000  481440
 18010  481140
 18020  480900
 18030  480660
 18040  480420
 18050  480120
 18060  479880
 18070  479640
 18080  479400
 18090  479100
 18100  478860
 18110  478620
 18120  478320
 18130  478080
 18140  477840
 18150  477600
 18160  477300
 18170  477060
 18180  476820
 18190  476580
 18200  476280
 18210  476040
 18220  475800
 18230  475500
 18240  475260
 18250  475020
 18260  474780
 18270  474480
 18280  474240
 18290  474000
 18300  473700
 18310  473460
 18320  473220
 18330  472980
 18340  472680
 18350  472440
 18360  472200
 18370  471900
 18380  471660
 18390  471420
 18400  471180
 18410  470880
 18420  470640
 18430  470400
 18440  470100
 18450  469860
 18460  469620
 18470  469320
 18480  469080
 18490  468840
 18500  468540
 18510  468300
 18520  468060
 18530  467820
 18540  467520
 18550  467280
 18560  467040
 18570  466740
 18580  466500
 18590  466260
 18600  465960
 18610  465720
 18620  465480
 18630  465180
 18640  464940
 18650  464700
 18660  464400
 18670  464160
 18680  463920
 18690  463620
 18700  463380
 18710  463140
 18720  462900
 18730  462600
 18740  462360
 18750  462120
 18760  461820
 18770  461580
 18780  461340
 18790  461040
 18800  460800
 18810  460560
 18820  460260
 18830  460020
 18840  459780
 18850  459480
 18860  459240
 18870  459000
 18880  458700
 18890  458460
 18900  458220
 18910  457920
 18920  457680
 18930  457440
 18940  457140
 18950  456900
 18960  456660
 18970  456360
 18980  456120
 18990  455880
 19000  455580
 19010  455340
 19020  455100
 19030  454800
 19040  454560
 19050  454320
 19060  454020
 19070  453780
 19080  453540
 19090  453240
 19100  453000
 19110  452760
 19120  452460
 19130  452220
 19140  451980
 19150  451680
 19160  451440
 19170  451200
 19180  450900
 19190  450660
 19200  450420
 19210  450120
 19220  449880
 19230  449640
 19240  449340
 19250  449100
 19260  448860
 19270  448560
 19280  448320
 19290  448020
 19300  447780
 19310  447540
 19320  447240
 19330  447000
 19340  446760
 19350  446460
 19360  446220
 19370  445980
 19380  445680
 19390  445440
 19400  445200
 19410  444900
 19420  444660
 19430  444420
 19440  444120
 19450  443880
 19460  443640
 19470  443340
 19480  443100
 19490  442860
 19500  442560
 19510  442320
 19520  442080
 19530  441780
 19540  441540
 19550  441300
 19560  441000
 19570  440760
 19580  440520
 19590  440280
 19600  439980
 19610  439740
 19620  439500
 19630  439200
 19640  438960
 19650  438720
 19660  438420
 19670  438180
 19680  437940
 19690  437640
 19700  437400
 19710  437160
 19720  436860
 19730  436620
 19740  436380
 19750  436080
 19760  435840
 19770  435600
 19780  435300
 19790  435060
 19800  434820
 19810  434520
 19820  434280
 19830  434040
 19840  433740
 19850  433500
 19860  433260
 19870  433020
 19880  432720
 19890  432480
 19900  432240
 19910  431940
 19920  431700
 19930  431460
 19940  431160
 19950  430920
 19960  430680
 19970  430380
 19980  430140
 19990  429900
 20000  429660
 20010  429360
 20020  429120
 20030  428880
 20040  428580
 20050  428340
 20060  428100
 20070  427800
 20080  427560
 20090  427320
 20100  427080
 20110  426780
 20120  426540
 20130  426300
 20140  426000
 20150  425760
 20160  425520
 20170  425220
 20180  424980
 20190  424740
 20200  424500
 20210  424200
 20220  423960
 20230  423720
 20240  423420
 20250  423180
 20260  422940
 20270  422700
 20280  422400
 20290  422160
 20300  421920
 20310  421680
 20320  421380
 20330  421140
 20340  420900
 20350  420600
 20360  420360
 20370  420120
 20380  419880
 20390  419580
 20400  419340
 20410  419100
 20420  418860
 20430  418560
 20440  418320
 20450  418080
 20460  417840
 20470  417540
 20480  417300
 20490  417060
 20500  416820
 20510  416520
 20520  416280
 20530  416040
 20540  415800
 20550  415500
 20560  415260
 20570  415020
 20580  414780
 20590  414480
 20600  414240
 20610  414000
 20620  413760
 20630  413460
 20640  413220
 20650  412980
 20660  412740
 20670  412440
 20680  412200
 20690  411960
 20700  411720
 20710  411420
 20720  411180
 20730  410940
 20740  410700
 20750  410460
 20760  410160
 20770  409920
 20780  409680
 20790  409440
 20800  409140
 20810  408900
 20820  408660
 20830  408420
 20840  408180
 20850  407880
 20860  407640
 20870  407400
 20880  407160
 20890  406920
 20900  406620
 20910  406380
 20920  406140
 20930  405900
 20940  405660
 20950  405360
 20960  405120
 20970  404880
 20980  404640
 20990  404400
 21000  404100
 21010  403860
 21020  403620
 21030  403380
 21040  403140
 21050  402840
 21060  402600
 21070  402360
 21080  402120
 21090  401880
 21100  401640
 21110  401340
 21120  401100
 21130  400860
 21140  400620
 21150  400380
 21160  400080
 21170  399840
 21180  399600
 21190  399360
 21200  399120
 21210  398880
 21220  398640
 21230  398340
 21240  398100
 21250  397860
 21260  397620
 21270  397380
 21280  397140
 21290  396840
 21300  396600
 21310  396360
 21320  396120
 21330  395880
 21340  395640
 21350  395400
 21360  395100
 21370  394860
 21380  394620
 21390  394380
 21400  394140
 21410  393900
 21420  393660
 21430  393420
 21440  393120
 21450  392880
 21460  392640
 21470  392400
 21480  392160
 21490  391920
 21500  391680
 21510  391440
 21520  391200
 21530  390900
 21540  390660
 21550  390420
 21560  390180
 21570  389940
 21580  389700
 21590  389460
 21600  389220
 21610  388980
 21620  388740
 21630  388440
 21640  388200
 21650  387960
 21660  387720
 21670  387480
 21680  387240
 21690  387000
 21700  386760
 21710  386520
 21720  386280
 21730  386040
 21740  385800
 21750  385500
 21760  385260
 21770  385020
 21780  384780
 21790  384540
 21800  384300
 21810  384060
 21820  383820
 21830  383580
 21840  383340
 21850  383100
 21860  382860
 21870  382620
 21880  382380
 21890  382140
 21900  381900
 21910  381660
 21920  381420
 21930  381120
 21940  380880
 21950  380640
 21960  380400
 21970  380160
 21980  379920
 21990  379680
 22000  379440
 22010  379200
 22020  378960
 22030  378720
 22040  378480
 22050  378240
 22060  378000
 22070  377760
 22080  377520
 22090  377280
 22100  377040
 22110  376800
 22120  376560
 22130  376320
 22140  376080
 22150  375840
 22160  375600
 22170  375360
 22180  375120
 22190  374880
 22200  374640
 22210  374400
 22220  374160
 22230  373920
 22240  373680
 22250  373440
 22260  373200
 22270  372960
 22280  372720
 22290  372480
 22300  372240
 22310  372000
 22320  371760
 22330  371520
 22340  371280
 22350  371100
 22360  370860
 22370  370620
 22380  370380
 22390  370140
 22400  369900
 22410  369660
 22420  369420
 22430  369180
 22440  368940
 22450  368700
 22460  368460
 22470  368220
 22480  367980
 22490  367740
 22500  367500
 22510  367260
 22520  367080
 22530  366840
 22540  366600
 22550  366360
 22560  366120
 22570  365880
 22580  365640
 22590  365400
 22600  365160
 22610  364920
 22620  364680
 22630  364440
 22640  364260
 22650  364020
 22660  363780
 22670  363540
 22680  363300
 22690  363060
 22700  362820
 22710  362580
 22720  362340
 22730  362160
 22740  361920
 22750  361680
 22760  361440
 22770  361200
 22780  360960
 22790  360720
 22800  360480
 22810  360300
 22820  360060
 22830  359820
 22840  359580
 22850  359340
 22860  359100
 22870  358860
 22880  358620
 22890  358440
 22900  358200
 22910  357960
 22920  357720
 22930  357480
 22940  357240
 22950  357060
 22960  356820
 22970  356580
 22980  356340
 22990  356100
 23000  355860
 23010  355680
 23020  355440
 23030  355200
 23040  354960
 23050  354720
 23060  354480
 23070  354300
 23080  354060
 23090  353820
 23100  353580
 23110  353340
 23120  353160
 23130  352920
 23140  352680
 23150  352440
 23160  352200
 23170  352020
 23180  351780
 23190  351540
 23200  351300
 23210  351060
 23220  350880
 23230  350640
 23240  350400
 23250  350160
 23260  349980
 23270  349740
 23280  349500
 23290  349260
 23300  349020
 23310  348840
 23320  348600
 23330  348360
 23340  348120
 23350  347940
 23360  347700
 23370  347460
 23380  347220
 23390  347040
 23400  346800
 23410  346560
 23420  346320
 23430  346140
 23440  345900
 23450  345660
 23460  345420
 23470  345240
 23480  345000
 23490  344760
 23500  344580
 23510  344340
 23520  344100
 23530  343860
 23540  343680
 23550  343440
 23560  343200
 23570  343020
 23580  342780
 23590  342540
 23600  342300
 23610  342120
 23620  341880
 23630  341640
 23640  341460
 23650  341220
 23660  340980
 23670  340800
 23680  340560
 23690  340320
 23700  340080
 23710  339900
 23720  339660
 23730  339420
 23740  339240
 23750  339000
 23760  338760
 23770  338580
 23780  338340
 23790  338100
 23800  337920
 23810  337680
 23820  337440
 23830  337260
 23840  337020
 23850  336840
 23860  336600
 23870  336360
 23880  336180
 23890  335940
 23900  335700
 23910  335520
 23920  335280
 23930  335040
 23940  334860
 23950  334620
 23960  334440
 23970  334200
 23980  333960
 23990  333780
 24000  333540
 24010  333300
 24020  333120
 24030  332880
 24040  332700
 24050  332460
 24060  332220
 24070  332040
 24080  331800
 24090  331620
 24100  331380
 24110  331140
 24120  330960
 24130  330720
 24140  330540
 24150  330300
 24160  330060
 24170  329880
 24180  329640
 24190  329460
 24200  329220
 24210  329040
 24220  328800
 24230  328560
 24240  328380
 24250  328140
 24260  327960
 24270  327720
 24280  327540
 24290  327300
 24300  327120
 24310  326880
 24320  326640
 24330  326460
 24340  326220
 24350  326040
 24360  325800
 24370  325620
 24380  325380
 24390  325200
 24400  324960
 24410  324780
 24420  324540
 24430  324360
 24440  324120
 24450  323940
 24460  323700
 24470  323460
 24480  323280
 24490  323040
 24500  322860
 24510  322620
 24520  322440
 24530  322200
 24540  322020
 24550  321780
 24560  321600
 24570  321360
 24580  321180
 24590  320940
 24600  320760
 24610  320520
 24620  320340
 24630  320160
 24640  319920
 24650  319740
 24660  319500
 24670  319320
 24680  319080
 24690  318900
 24700  318660
 24710  318480
 24720  318240
 24730  318060
 24740  317820
 24750  317640
 24760  317400
 24770  317220
 24780  317040
 24790  316800
 24800  316620
 24810  316380
 24820  316200
 24830  315960
 24840  315780
 24850  315600
 24860  315360
 24870  315180
 24880  314940
 24890  314760
 24900  314520
 24910  314340
 24920  314160
 24930  313920
 24940  313740
 24950  313500
 24960  313320
 24970  313140
 24980  312900
 24990  312720
 25000  312480
 25010  312300
 25020  312120
 25030  311880
 25040  311700
 25050  311460
 25060  311280
 25070  311100
 25080  310860
 25090  310680
 25100  310440
 25110  310260
 25120  310080
 25130  309840
 25140  309660
 25150  309480
 25160  309240
 25170  309060
 25180  308880
 25190  308640
 25200  308460
 25210  308220
 25220  308040
 25230  307860
 25240  307620
 25250  307440
 25260  307260
 25270  307020
 25280  306840
 25290  306660
 25300  306420
 25310  306240
 25320  306060
 25330  305820
 25340  305640
 25350  305460
 25360  305220
 25370  305040
 25380  304860
 25390  304620
 25400  304440
 25410  304260
 25420  304080
 25430  303840
 25440  303660
 25450  303480
 25460  303240
 25470  303060
 25480  302880
 25490  302640
 25500  302460
 25510  302280
 25520  302100
 25530  301860
 25540  301680
 25550  301500
 25560  301260
 25570  301080
 25580  300900
 25590  300720
 25600  300480
 25610  300300
 25620  300120
 25630  299940
 25640  299700
 25650  299520
 25660  299340
 25670  299160
 25680  298920
 25690  298740
 25700  298560
 25710  298380
 25720  298140
 25730  297960
 25740  297780
 25750  297600
 25760  297360
 25770  297180
 25780  297000
 25790  296820
 25800  296580
 25810  296400
 25820  296220
 25830  296040
 25840  295860
 25850  295620
 25860  295440
 25870  295260
 25880  295080
 25890  294900
 25900  294660
 25910  294480
 25920  294300
 25930  294120
 25940  293940
 25950  293700
 25960  293520
 25970  293340
 25980  293160
 25990  292980
 26000  292740
 26010  292560
 26020  292380
 26030  292200
 26040  292020
 26050  291840
 26060  291600
 26070  291420
 26080  291240
 26090  291060
 26100  290880
 26110  290700
 26120  290460
 26130  290280
 26140  290100
 26150  289920
 26160  289740
 26170  289560
 26180  289380
 26190  289140
 26200  288960
 26210  288780
 26220  288600
 26230  288420
 26240  288240
 26250  288060
 26260  287880
 26270  287640
 26280  287460
 26290  287280
 26300  287100
 26310  286920
 26320  286740
 26330  286560
 26340  286380
 26350  286140
 26360  285960
 26370  285780
 26380  285600
 26390  285420
 26400  285240
 26410  285060
 26420  284880
 26430  284700
 26440  284520
 26450  284340
 26460  284100
 26470  283920
 26480  283740
 26490  283560
 26500  283380
 26510  283200
 26520  283020
 26530  282840
 26540  282660
 26550  282480
 26560  282300
 26570  282120
 26580  281940
 26590  281760
 26600  281580
 26610  281340
 26620  281160
 26630  280980
 26640  280800
 26650  280620
 26660  280440
 26670  280260
 26680  280080
 26690  279900
 26700  279720
 26710  279540
 26720  279360
 26730  279180
 26740  279000
 26750  278820
 26760  278640
 26770  278460
 26780  278280
 26790  278100
 26800  277920
 26810  277740
 26820  277560
 26830  277380
 26840  277200
 26850  277020
 26860  276840
 26870  276660
 26880  276480
 26890  276300
 26900  276120
 26910  275940
 26920  275760
 26930  275580
 26940  275400
 26950  275220
 26960  275040
 26970  274860
 26980  274680
 26990  274500
 27000  274320
 27010  274140
 27020  273960
 27030  273780
 27040  273600
 27050  273420
 27060  273240
 27070  273060
 27080  272880
 27090  272760
 27100  272580
 27110  272400
 27120  272220
 27130  272040
 27140  271860
 27150  271680
 27160  271500
 27170  271320
 27180  271140
 27190  270960
 27200  270780
 27210  270600
 27220  270420
 27230  270240
 27240  270120
 27250  269940
 27260  269760
 27270  269580
 27280  269400
 27290  269220
 27300  269040
 27310  268860
 27320  268680
 27330  268500
 27340  268320
 27350  268200
 27360  268020
 27370  267840
 27380  267660
 27390  267480
 27400  267300
 27410  267120
 27420  266940
 27430  266760
 27440  266640
 27450  266460
 27460  266280
 27470  266100
 27480  265920
 27490  265740
 27500  265560
 27510  265380
 27520  265260
 27530  265080
 27540  264900
 27550  264720
 27560  264540
 27570  264360
 27580  264180
 27590  264060
 27600  263880
 27610  263700
 27620  263520
 27630  263340
 27640  263160
 27650  263040
 27660  262860
 27670  262680
 27680  262500
 27690  262320
 27700  262140
 27710  262020
 27720  261840
 27730  261660
 27740  261480
 27750  261300
 27760  261180
 27770  261000
 27780  260820
 27790  260640
 27800  260460
 27810  260280
 27820  260160
 27830  259980
 27840  259800
 27850  259620
 27860  259500
 27870  259320
 27880  259140
 27890  258960
 27900  258780
 27910  258660
 27920  258480
 27930  258300
 27940  258120
 27950  257940
 27960  257820
 27970  257640
 27980  257460
 27990  257280
 28000  257160
 28010  256980
 28020  256800
 28030  256620
 28040  256500
 28050  256320
 28060  256140
 28070  255960
 28080  255840
 28090  255660
 28100  255480
 28110  255300
 28120  255180
 28130  255000
 28140  254820
 28150  254640
 28160  254520
 28170  254340
 28180  254160
 28190  253980
 28200  253860
 28210  253680
 28220  253500
 28230  253380
 28240  253200
 28250  253020
 28260  252840
 28270  252720
 28280  252540
 28290  252360
 28300  252240
 28310  252060
 28320  251880
 28330  251700
 28340  251580
 28350  251400
 28360  251220
 28370  251100
 28380  250920
 28390  250740
 28400  250620
 28410  250440
 28420  250260
 28430  250140
 28440  249960
 28450  249780
 28460  249660
 28470  249480
 28480  249300
 28490  249180
 28500  249000
 28510  248820
 28520  248700
 28530  248520
 28540  248340
 28550  248220
 28560  248040
 28570  247860
 28580  247740
 28590  247560
 28600  247380
 28610  247260
 28620  247080
 28630  246900
 28640  246780
 28650  246600
 28660  246420
 28670  246300
 28680  246120
 28690  246000
 28700  245820
 28710  245640
 28720  245520
 28730  245340
 28740  245160
 28750  245040
 28760  244860
 28770  244740
 28780  244560
 28790  244380
 28800  244260
 28810  244080
 28820  243960
 28830  243780
 28840  243600
 28850  243480
 28860  243300
 28870  243180
 28880  243000
 28890  242820
 28900  242700
 28910  242520
 28920  242400
 28930  242220
 28940  242040
 28950  241920
 28960  241740
 28970  241620
 28980  241440
 28990  241320
 29000  241140
 29010  240960
 29020  240840
 29030  240660
 29040  240540
 29050  240360
 29060  240240
 29070  240060
 29080  239880
 29090  239760
 29100  239580
 29110  239460
 29120  239280
 29130  239160
 29140  238980
 29150  238860
 29160  238680
 29170  238500
 29180  238380
 29190  238200
 29200  238080
 29210  237900
 29220  237780
 29230  237600
 29240  237480
 29250  237300
 29260  237180
 29270  237000
 29280  236880
 29290  236700
 29300  236580
 29310  236400
 29320  236280
 29330  236100
 29340  235980
 29350  235800
 29360  235680
 29370  235500
 29380  235380
 29390  235200
 29400  235080
 29410  234900
 29420  234780
 29430  234600
 29440  234480
 29450  234300
 29460  234180
 29470  234000
 29480  233880
 29490  233700
 29500  233580
 29510  233400
 29520  233280
 29530  233100
 29540  232980
 29550  232800
 29560  232680
 29570  232500
 29580  232380
 29590  232200
 29600  232080
 29610  231960
 29620  231780
 29630  231660
 29640  231480
 29650  231360
 29660  231180
 29670  231060
 29680  230880
 29690  230760
 29700  230580
 29710  230460
 29720  230340
 29730  230160
 29740  230040
 29750  229860
 29760  229740
 29770  229560
 29780  229440
 29790  229320
 29800  229140
 29810  229020
 29820  228840
 29830  228720
 29840  228540
 29850  228420
 29860  228300
 29870  228120
 29880  228000
 29890  227820
 29900  227700
 29910  227580
 29920  227400
 29930  227280
 29940  227100
 29950  226980
 29960  226860
 29970  226680
 29980  226560
 29990  226380
